# Average Spectral response curve for CFHT Wircam H filter

#Detector Type
Energy counter

# Wave (microns)     Filter Response
1.4585               0.0049300000
1.4590               0.0055100000
1.4595               0.0058700000
1.4600               0.0063900000
1.4605               0.0067100000
1.4610               0.0073500000
1.4615               0.0078000000
1.4620               0.0083600000
1.4625               0.0092000000
1.4630               0.0098100000
1.4635               0.0105600000
1.4640               0.0116700000
1.4645               0.0128500000
1.4650               0.0140400000
1.4655               0.0154900000
1.4660               0.0170000000
1.4665               0.0187800000
1.4670               0.0209000000
1.4675               0.0233900000
1.4680               0.0261700000
1.4685               0.0292100000
1.4690               0.0325200000
1.4695               0.0363600000
1.4700               0.0408300000
1.4705               0.0459400000
1.4710               0.0512200000
1.4715               0.0571000000
1.4720               0.0631400000
1.4725               0.0703300000
1.4730               0.0779900000
1.4735               0.0867300000
1.4740               0.0955800000
1.4745               0.1051600000
1.4750               0.1156000000
1.4755               0.1269500000
1.4760               0.1393400000
1.4765               0.1523300000
1.4770               0.1660200000
1.4775               0.1802800000
1.4780               0.1954300000
1.4785               0.2117500000
1.4790               0.2281000000
1.4795               0.2454500000
1.4800               0.2631400000
1.4805               0.2818500000
1.4810               0.3009900000
1.4815               0.3205400000
1.4820               0.3409000000
1.4825               0.3614000000
1.4830               0.3827700000
1.4835               0.4044800000
1.4840               0.4265400000
1.4845               0.4487900000
1.4850               0.4713300000
1.4855               0.4944500000
1.4860               0.5175200000
1.4865               0.5406500000
1.4870               0.5638900000
1.4875               0.5871600000
1.4880               0.6102800000
1.4885               0.6331600000
1.4890               0.6559000000
1.4895               0.6780500000
1.4900               0.6993700000
1.4905               0.7203400000
1.4910               0.7405100000
1.4915               0.7595800000
1.4920               0.7777400000
1.4925               0.7946800000
1.4930               0.8103300000
1.4935               0.8250000000
1.4940               0.8388500000
1.4945               0.8511200000
1.4950               0.8624400000
1.4955               0.8727100000
1.4960               0.8825400000
1.4965               0.8912000000
1.4970               0.8990300000
1.4975               0.9056700000
1.4980               0.9114800000
1.4985               0.9166700000
1.4990               0.9213400000
1.4995               0.9250200000
1.5000               0.9282200000
1.5005               0.9309400000
1.5010               0.9334600000
1.5015               0.9355600000
1.5020               0.9375300000
1.5025               0.9390400000
1.5030               0.9404400000
1.5035               0.9417300000
1.5040               0.9426700000
1.5045               0.9435100000
1.5050               0.9444400000
1.5055               0.9456800000
1.5060               0.9469300000
1.5065               0.9480400000
1.5070               0.9489700000
1.5075               0.9498000000
1.5080               0.9507400000
1.5085               0.9518600000
1.5090               0.9526200000
1.5095               0.9529600000
1.5100               0.9534000000
1.5105               0.9540100000
1.5110               0.9546400000
1.5115               0.9552900000
1.5120               0.9555800000
1.5125               0.9557000000
1.5130               0.9560400000
1.5135               0.9561900000
1.5140               0.9561200000
1.5145               0.9560700000
1.5150               0.9559300000
1.5155               0.9557500000
1.5160               0.9554700000
1.5165               0.9551800000
1.5170               0.9552300000
1.5175               0.9548800000
1.5180               0.9547000000
1.5185               0.9539600000
1.5190               0.9532200000
1.5195               0.9527700000
1.5200               0.9522100000
1.5205               0.9516400000
1.5210               0.9511600000
1.5215               0.9510300000
1.5220               0.9508200000
1.5225               0.9510500000
1.5230               0.9509900000
1.5235               0.9509100000
1.5240               0.9508700000
1.5245               0.9507000000
1.5250               0.9502900000
1.5255               0.9497700000
1.5260               0.9494800000
1.5265               0.9489900000
1.5270               0.9487800000
1.5275               0.9489000000
1.5280               0.9490400000
1.5285               0.9492000000
1.5290               0.9494800000
1.5295               0.9500100000
1.5300               0.9503200000
1.5305               0.9507100000
1.5310               0.9511900000
1.5315               0.9513200000
1.5320               0.9515800000
1.5325               0.9516600000
1.5330               0.9517100000
1.5335               0.9516300000
1.5340               0.9517200000
1.5345               0.9516100000
1.5350               0.9517200000
1.5355               0.9518300000
1.5360               0.9522200000
1.5365               0.9523600000
1.5370               0.9523800000
1.5375               0.9523300000
1.5380               0.9525300000
1.5385               0.9529700000
1.5390               0.9534300000
1.5395               0.9538000000
1.5400               0.9536400000
1.5405               0.9537500000
1.5410               0.9543800000
1.5415               0.9549900000
1.5420               0.9548300000
1.5425               0.9548000000
1.5430               0.9546500000
1.5435               0.9543200000
1.5440               0.9546400000
1.5445               0.9551100000
1.5450               0.9550200000
1.5455               0.9550600000
1.5460               0.9556400000
1.5465               0.9560100000
1.5470               0.9563800000
1.5475               0.9565600000
1.5480               0.9565400000
1.5485               0.9563000000
1.5490               0.9560500000
1.5495               0.9558600000
1.5500               0.9555800000
1.5505               0.9553400000
1.5510               0.9549400000
1.5515               0.9548600000
1.5520               0.9546800000
1.5525               0.9546100000
1.5530               0.9547100000
1.5535               0.9546800000
1.5540               0.9545900000
1.5545               0.9547900000
1.5550               0.9547300000
1.5555               0.9547600000
1.5560               0.9543900000
1.5565               0.9541800000
1.5570               0.9536600000
1.5575               0.9536600000
1.5580               0.9535400000
1.5585               0.9528400000
1.5590               0.9526500000
1.5595               0.9524200000
1.5600               0.9526100000
1.5605               0.9527700000
1.5610               0.9529900000
1.5615               0.9525000000
1.5620               0.9523600000
1.5625               0.9523600000
1.5630               0.9526400000
1.5635               0.9528000000
1.5640               0.9530600000
1.5645               0.9533700000
1.5650               0.9537400000
1.5655               0.9541300000
1.5660               0.9545400000
1.5665               0.9553700000
1.5670               0.9557800000
1.5675               0.9561200000
1.5680               0.9564400000
1.5685               0.9566500000
1.5690               0.9570000000
1.5695               0.9574000000
1.5700               0.9577000000
1.5705               0.9580100000
1.5710               0.9582100000
1.5715               0.9586300000
1.5720               0.9586600000
1.5725               0.9589400000
1.5730               0.9594100000
1.5735               0.9600400000
1.5740               0.9604200000
1.5745               0.9606000000
1.5750               0.9608600000
1.5755               0.9609100000
1.5760               0.9612000000
1.5765               0.9614400000
1.5770               0.9618400000
1.5775               0.9620100000
1.5780               0.9625500000
1.5785               0.9628600000
1.5790               0.9634700000
1.5795               0.9639700000
1.5800               0.9643900000
1.5805               0.9650700000
1.5810               0.9648900000
1.5815               0.9649700000
1.5820               0.9649000000
1.5825               0.9650100000
1.5830               0.9648100000
1.5835               0.9648300000
1.5840               0.9651800000
1.5845               0.9647100000
1.5850               0.9649000000
1.5855               0.9651800000
1.5860               0.9654100000
1.5865               0.9655500000
1.5870               0.9658200000
1.5875               0.9657400000
1.5880               0.9655300000
1.5885               0.9657900000
1.5890               0.9660800000
1.5895               0.9661700000
1.5900               0.9662000000
1.5905               0.9662900000
1.5910               0.9664300000
1.5915               0.9668400000
1.5920               0.9670700000
1.5925               0.9673600000
1.5930               0.9672500000
1.5935               0.9671600000
1.5940               0.9675400000
1.5945               0.9679400000
1.5950               0.9680800000
1.5955               0.9682900000
1.5960               0.9684100000
1.5965               0.9683800000
1.5970               0.9684900000
1.5975               0.9682800000
1.5980               0.9679300000
1.5985               0.9675800000
1.5990               0.9672500000
1.5995               0.9669500000
1.6000               0.9664200000
1.6005               0.9660300000
1.6010               0.9657100000
1.6015               0.9654700000
1.6020               0.9648600000
1.6025               0.9642900000
1.6030               0.9635200000
1.6035               0.9628400000
1.6040               0.9625100000
1.6045               0.9617600000
1.6050               0.9612600000
1.6055               0.9606600000
1.6060               0.9601100000
1.6065               0.9591400000
1.6070               0.9586800000
1.6075               0.9575000000
1.6080               0.9566700000
1.6085               0.9561200000
1.6090               0.9550300000
1.6095               0.9547700000
1.6100               0.9540900000
1.6105               0.9541800000
1.6110               0.9536600000
1.6115               0.9538700000
1.6120               0.9534300000
1.6125               0.9529600000
1.6130               0.9526200000
1.6135               0.9521200000
1.6140               0.9521500000
1.6145               0.9518000000
1.6150               0.9515400000
1.6155               0.9508800000
1.6160               0.9506800000
1.6165               0.9508400000
1.6170               0.9507100000
1.6175               0.9509600000
1.6180               0.9508800000
1.6185               0.9512200000
1.6190               0.9513700000
1.6195               0.9519800000
1.6200               0.9521900000
1.6205               0.9523600000
1.6210               0.9527100000
1.6215               0.9529600000
1.6220               0.9528800000
1.6225               0.9530600000
1.6230               0.9537500000
1.6235               0.9534600000
1.6240               0.9537200000
1.6245               0.9538700000
1.6250               0.9543300000
1.6255               0.9543200000
1.6260               0.9545900000
1.6265               0.9543300000
1.6270               0.9540400000
1.6275               0.9545700000
1.6280               0.9546700000
1.6285               0.9547700000
1.6290               0.9541600000
1.6295               0.9539800000
1.6300               0.9542200000
1.6305               0.9543000000
1.6310               0.9543000000
1.6315               0.9541500000
1.6320               0.9544200000
1.6325               0.9546500000
1.6330               0.9552900000
1.6335               0.9554100000
1.6340               0.9551700000
1.6345               0.9548800000
1.6350               0.9544700000
1.6355               0.9539500000
1.6360               0.9536900000
1.6365               0.9531900000
1.6370               0.9531100000
1.6375               0.9531600000
1.6380               0.9530000000
1.6385               0.9533100000
1.6390               0.9533400000
1.6395               0.9533800000
1.6400               0.9528200000
1.6405               0.9525900000
1.6410               0.9518600000
1.6415               0.9513200000
1.6420               0.9512200000
1.6425               0.9507800000
1.6430               0.9503300000
1.6435               0.9503900000
1.6440               0.9507400000
1.6445               0.9507100000
1.6450               0.9510800000
1.6455               0.9514800000
1.6460               0.9513900000
1.6465               0.9517500000
1.6470               0.9525100000
1.6475               0.9526500000
1.6480               0.9529900000
1.6485               0.9538000000
1.6490               0.9541600000
1.6495               0.9544800000
1.6500               0.9550800000
1.6505               0.9549100000
1.6510               0.9550600000
1.6515               0.9552800000
1.6520               0.9555100000
1.6525               0.9550900000
1.6530               0.9548200000
1.6535               0.9544800000
1.6540               0.9537400000
1.6545               0.9538000000
1.6550               0.9532800000
1.6555               0.9532800000
1.6560               0.9531200000
1.6565               0.9531700000
1.6570               0.9536100000
1.6575               0.9537700000
1.6580               0.9539200000
1.6585               0.9538600000
1.6590               0.9541600000
1.6595               0.9535400000
1.6600               0.9533400000
1.6605               0.9530900000
1.6610               0.9525100000
1.6615               0.9525000000
1.6620               0.9529100000
1.6625               0.9530000000
1.6630               0.9529300000
1.6635               0.9531900000
1.6640               0.9527700000
1.6645               0.9523600000
1.6650               0.9525900000
1.6655               0.9520000000
1.6660               0.9515500000
1.6665               0.9511400000
1.6670               0.9509300000
1.6675               0.9512500000
1.6680               0.9512000000
1.6685               0.9514900000
1.6690               0.9509600000
1.6695               0.9516100000
1.6700               0.9517800000
1.6705               0.9519000000
1.6710               0.9521200000
1.6715               0.9522100000
1.6720               0.9523200000
1.6725               0.9524500000
1.6730               0.9531200000
1.6735               0.9531400000
1.6740               0.9535800000
1.6745               0.9538700000
1.6750               0.9543900000
1.6755               0.9544800000
1.6760               0.9547100000
1.6765               0.9552500000
1.6770               0.9558400000
1.6775               0.9559200000
1.6780               0.9561500000
1.6785               0.9568900000
1.6790               0.9568800000
1.6795               0.9574300000
1.6800               0.9581600000
1.6805               0.9579900000
1.6810               0.9581300000
1.6815               0.9589800000
1.6820               0.9598100000
1.6825               0.9605600000
1.6830               0.9614400000
1.6835               0.9618700000
1.6840               0.9624600000
1.6845               0.9634100000
1.6850               0.9641300000
1.6855               0.9642800000
1.6860               0.9642200000
1.6865               0.9637900000
1.6870               0.9637800000
1.6875               0.9641100000
1.6880               0.9643900000
1.6885               0.9647100000
1.6890               0.9648600000
1.6895               0.9650600000
1.6900               0.9651300000
1.6905               0.9657300000
1.6910               0.9659000000
1.6915               0.9659400000
1.6920               0.9659400000
1.6925               0.9662300000
1.6930               0.9663500000
1.6935               0.9663800000
1.6940               0.9663200000
1.6945               0.9657300000
1.6950               0.9653500000
1.6955               0.9651200000
1.6960               0.9652900000
1.6965               0.9654500000
1.6970               0.9652300000
1.6975               0.9650600000
1.6980               0.9653800000
1.6985               0.9656400000
1.6990               0.9665800000
1.6995               0.9666600000
1.7000               0.9661100000
1.7005               0.9656800000
1.7010               0.9654400000
1.7015               0.9653900000
1.7020               0.9652700000
1.7025               0.9652400000
1.7030               0.9647200000
1.7035               0.9645200000
1.7040               0.9640800000
1.7045               0.9634400000
1.7050               0.9628900000
1.7055               0.9623300000
1.7060               0.9614400000
1.7065               0.9608500000
1.7070               0.9599500000
1.7075               0.9594000000
1.7080               0.9590000000
1.7085               0.9585900000
1.7090               0.9584400000
1.7095               0.9579800000
1.7100               0.9577000000
1.7105               0.9574900000
1.7110               0.9571400000
1.7115               0.9574900000
1.7120               0.9573700000
1.7125               0.9570300000
1.7130               0.9567900000
1.7135               0.9563600000
1.7140               0.9565900000
1.7145               0.9559800000
1.7150               0.9553500000
1.7155               0.9541900000
1.7160               0.9539200000
1.7165               0.9537800000
1.7170               0.9530900000
1.7175               0.9529400000
1.7180               0.9520000000
1.7185               0.9518300000
1.7190               0.9515500000
1.7195               0.9509600000
1.7200               0.9504900000
1.7205               0.9496500000
1.7210               0.9488200000
1.7215               0.9479400000
1.7220               0.9473700000
1.7225               0.9467900000
1.7230               0.9459800000
1.7235               0.9457700000
1.7240               0.9453900000
1.7245               0.9450400000
1.7250               0.9447200000
1.7255               0.9447800000
1.7260               0.9442600000
1.7265               0.9437400000
1.7270               0.9439500000
1.7275               0.9439400000
1.7280               0.9442600000
1.7285               0.9441800000
1.7290               0.9442300000
1.7295               0.9439400000
1.7300               0.9442700000
1.7305               0.9444400000
1.7310               0.9444700000
1.7315               0.9442700000
1.7320               0.9436000000
1.7325               0.9435900000
1.7330               0.9444000000
1.7335               0.9442900000
1.7340               0.9447300000
1.7345               0.9451400000
1.7350               0.9453700000
1.7355               0.9453700000
1.7360               0.9453900000
1.7365               0.9455000000
1.7370               0.9446600000
1.7375               0.9446900000
1.7380               0.9440600000
1.7385               0.9433400000
1.7390               0.9431800000
1.7395               0.9428100000
1.7400               0.9419700000
1.7405               0.9410100000
1.7410               0.9405700000
1.7415               0.9400000000
1.7420               0.9391600000
1.7425               0.9383200000
1.7430               0.9369500000
1.7435               0.9363400000
1.7440               0.9365200000
1.7445               0.9364000000
1.7450               0.9357800000
1.7455               0.9353500000
1.7460               0.9345200000
1.7465               0.9344000000
1.7470               0.9343600000
1.7475               0.9335300000
1.7480               0.9327700000
1.7485               0.9325000000
1.7490               0.9324800000
1.7495               0.9321100000
1.7500               0.9323300000
1.7505               0.9319900000
1.7510               0.9314400000
1.7515               0.9318500000
1.7520               0.9317000000
1.7525               0.9313200000
1.7530               0.9311400000
1.7535               0.9314600000
1.7540               0.9319800000
1.7545               0.9325100000
1.7550               0.9341100000
1.7555               0.9346900000
1.7560               0.9359000000
1.7565               0.9375900000
1.7570               0.9393300000
1.7575               0.9409500000
1.7580               0.9420300000
1.7585               0.9433400000
1.7590               0.9447000000
1.7595               0.9460800000
1.7600               0.9469100000
1.7605               0.9471100000
1.7610               0.9474000000
1.7615               0.9474800000
1.7620               0.9471100000
1.7625               0.9462700000
1.7630               0.9438200000
1.7635               0.9407800000
1.7640               0.9377600000
1.7645               0.9334000000
1.7650               0.9268000000
1.7655               0.9193000000
1.7660               0.9111000000
1.7665               0.9017800000
1.7670               0.8909500000
1.7675               0.8787700000
1.7680               0.8643600000
1.7685               0.8492000000
1.7690               0.8325800000
1.7695               0.8144800000
1.7700               0.7939500000
1.7705               0.7724200000
1.7710               0.7496800000
1.7715               0.7292800000
1.7720               0.7075500000
1.7725               0.6851500000
1.7730               0.6619000000
1.7735               0.6375700000
1.7740               0.6131100000
1.7745               0.5882400000
1.7750               0.5626400000
1.7755               0.5344400000
1.7760               0.5065600000
1.7765               0.4790500000
1.7770               0.4516100000
1.7775               0.4253100000
1.7780               0.3999200000
1.7785               0.3749700000
1.7790               0.3512600000
1.7795               0.3287400000
1.7800               0.3067300000
1.7805               0.2851700000
1.7810               0.2654100000
1.7815               0.2473100000
1.7820               0.2295100000
1.7825               0.2126200000
1.7830               0.1972700000
1.7835               0.1823000000
1.7840               0.1689100000
1.7845               0.1564300000
1.7850               0.1449700000
1.7855               0.1333900000
1.7860               0.1239800000
1.7865               0.1148500000
1.7870               0.1065700000
1.7875               0.0986500000
1.7880               0.0912800000
1.7885               0.0840900000
1.7890               0.0781700000
1.7895               0.0728500000
1.7900               0.0673500000
1.7905               0.0625200000
1.7910               0.0577700000
1.7915               0.0540300000
1.7920               0.0503200000
1.7925               0.0474700000
1.7930               0.0445400000
1.7935               0.0412100000
1.7940               0.0385600000
1.7945               0.0360000000
1.7950               0.0340000000
1.7955               0.0315400000
1.7960               0.0298500000
1.7965               0.0278600000
1.7970               0.0263800000
1.7975               0.0249600000
1.7980               0.0229300000
1.7985               0.0216100000
1.7990               0.0206000000
1.7995               0.0195600000
1.8000               0.0181400000
1.8005               0.0176200000
1.8010               0.0163900000
1.8015               0.0153400000
1.8020               0.0150800000
1.8025               0.0145100000
1.8030               0.0137600000
1.8035               0.0132900000
1.8040               0.0129400000
1.8045               0.0122700000
1.8050               0.0116900000
1.8055               0.0117300000
1.8060               0.0114600000
1.8065               0.0112900000
1.8070               0.0110200000
1.8075               0.0103100000
1.8080               0.0101300000
1.8085               0.0097400000
1.8090               0.0091100000
1.8095               0.0080400000
1.8100               0.0079700000
1.8105               0.0072000000
1.8110               0.0061200000
1.8115               0.0059200000
1.8120               0.0053900000
1.8125               0.0047300000
1.8130               0.0048500000
1.8135               0.0050800000
1.8140               0.0047800000
1.8145               0.0049000000
1.8150               0.0058000000
1.8155               0.0049100000
1.8160               0.0050400000
1.8165               0.0045900000
1.8170               0.0039200000
1.8175               0.0032500000
1.8180               0.0028100000
1.8185               0.0037400000
1.8190               0.0038800000
1.8195               0.0047800000
1.8200               0.0036500000
1.8205               0.0037500000
1.8210               0.0036500000
1.8215               0.0047800000
1.8220               0.0049000000
1.8225               0.0035100000
1.8230               0.0023700000
1.8235               0.0020300000
1.8240               0.0034000000
1.8245               0.0038600000
1.8250               0.0032800000
1.8255               0.0030700000
1.8260               0.0034000000
1.8265               0.0043300000
1.8270               0.0051400000
1.8275               0.0052600000
1.8280               0.0045800000
1.8285               0.0051900000
1.8290               0.0064500000
1.8295               0.0058900000
1.8300               0.0053300000
1.8305               0.0051300000
1.8310               0.0043200000
1.8315               0.0043300000
