# Average Spectral response curve for CFHT Wircam Ks filter

#Detector Type
Energy counter

# Wave (microns)     Filter Response
1.9525               0.0039800000
1.9530               0.0043800000
1.9535               0.0041800000
1.9540               0.0053900000
1.9545               0.0059800000
1.9550               0.0065800000
1.9555               0.0059500000
1.9560               0.0075400000
1.9565               0.0073100000
1.9570               0.0082900000
1.9575               0.0090600000
1.9580               0.0104200000
1.9585               0.0117600000
1.9590               0.0138700000
1.9595               0.0156100000
1.9600               0.0157800000
1.9605               0.0171400000
1.9610               0.0177000000
1.9615               0.0194200000
1.9620               0.0205700000
1.9625               0.0228300000
1.9630               0.0237600000
1.9635               0.0243100000
1.9640               0.0264100000
1.9645               0.0294000000
1.9650               0.0318800000
1.9655               0.0351300000
1.9660               0.0384100000
1.9665               0.0410900000
1.9670               0.0443700000
1.9675               0.0485800000
1.9680               0.0513800000
1.9685               0.0548400000
1.9690               0.0583300000
1.9695               0.0616000000
1.9700               0.0664100000
1.9705               0.0702200000
1.9710               0.0755200000
1.9715               0.0819100000
1.9720               0.0894800000
1.9725               0.0947000000
1.9730               0.1026800000
1.9735               0.1101100000
1.9740               0.1162300000
1.9745               0.1246600000
1.9750               0.1325400000
1.9755               0.1413400000
1.9760               0.1504100000
1.9765               0.1612400000
1.9770               0.1702400000
1.9775               0.1812400000
1.9780               0.1929800000
1.9785               0.2056300000
1.9790               0.2184800000
1.9795               0.2320100000
1.9800               0.2452200000
1.9805               0.2599300000
1.9810               0.2756000000
1.9815               0.2916400000
1.9820               0.3097500000
1.9825               0.3280900000
1.9830               0.3473400000
1.9835               0.3668800000
1.9840               0.3869300000
1.9845               0.4078500000
1.9850               0.4285900000
1.9855               0.4511600000
1.9860               0.4717100000
1.9865               0.4921700000
1.9870               0.5131400000
1.9875               0.5339100000
1.9880               0.5551600000
1.9885               0.5769700000
1.9890               0.6006800000
1.9895               0.6223100000
1.9900               0.6440700000
1.9905               0.6655400000
1.9910               0.6859400000
1.9915               0.7072100000
1.9920               0.7271000000
1.9925               0.7450400000
1.9930               0.7604800000
1.9935               0.7751300000
1.9940               0.7900400000
1.9945               0.8041500000
1.9950               0.8171100000
1.9955               0.8291500000
1.9960               0.8414300000
1.9965               0.8537300000
1.9970               0.8644000000
1.9975               0.8740500000
1.9980               0.8830400000
1.9985               0.8907500000
1.9990               0.8991900000
1.9995               0.9044000000
2.0000               0.9096700000
2.0005               0.9118800000
2.0010               0.9166600000
2.0015               0.9208200000
2.0020               0.9241200000
2.0025               0.9262500000
2.0030               0.9283100000
2.0035               0.9307600000
2.0040               0.9325100000
2.0045               0.9350400000
2.0050               0.9359600000
2.0055               0.9372400000
2.0060               0.9400500000
2.0065               0.9437400000
2.0070               0.9458000000
2.0075               0.9477800000
2.0080               0.9496200000
2.0085               0.9506500000
2.0090               0.9527700000
2.0095               0.9534300000
2.0100               0.9534100000
2.0105               0.9518600000
2.0110               0.9528800000
2.0115               0.9545100000
2.0120               0.9556700000
2.0125               0.9574300000
2.0130               0.9591200000
2.0135               0.9619900000
2.0140               0.9635600000
2.0145               0.9663700000
2.0150               0.9684400000
2.0155               0.9697400000
2.0160               0.9708100000
2.0165               0.9713400000
2.0170               0.9711000000
2.0175               0.9702900000
2.0180               0.9711900000
2.0185               0.9711600000
2.0190               0.9706400000
2.0195               0.9702000000
2.0200               0.9712100000
2.0205               0.9709300000
2.0210               0.9721200000
2.0215               0.9732700000
2.0220               0.9717100000
2.0225               0.9708700000
2.0230               0.9695400000
2.0235               0.9681400000
2.0240               0.9640200000
2.0245               0.9631500000
2.0250               0.9619300000
2.0255               0.9597500000
2.0260               0.9595000000
2.0265               0.9588500000
2.0270               0.9585700000
2.0275               0.9590000000
2.0280               0.9609100000
2.0285               0.9624300000
2.0290               0.9619600000
2.0295               0.9630300000
2.0300               0.9618400000
2.0305               0.9614000000
2.0310               0.9594000000
2.0315               0.9586600000
2.0320               0.9580800000
2.0325               0.9567100000
2.0330               0.9547100000
2.0335               0.9529600000
2.0340               0.9532300000
2.0345               0.9526700000
2.0350               0.9534800000
2.0355               0.9537500000
2.0360               0.9524100000
2.0365               0.9509900000
2.0370               0.9503500000
2.0375               0.9503000000
2.0380               0.9495800000
2.0385               0.9496200000
2.0390               0.9489600000
2.0395               0.9472500000
2.0400               0.9461500000
2.0405               0.9466700000
2.0410               0.9481800000
2.0415               0.9490200000
2.0420               0.9499700000
2.0425               0.9499200000
2.0430               0.9488500000
2.0435               0.9489400000
2.0440               0.9507600000
2.0445               0.9509000000
2.0450               0.9500100000
2.0455               0.9487300000
2.0460               0.9464000000
2.0465               0.9446700000
2.0470               0.9444000000
2.0475               0.9437000000
2.0480               0.9435400000
2.0485               0.9410100000
2.0490               0.9400200000
2.0495               0.9397300000
2.0500               0.9388300000
2.0505               0.9390100000
2.0510               0.9396400000
2.0515               0.9406100000
2.0520               0.9384800000
2.0525               0.9407500000
2.0530               0.9414200000
2.0535               0.9425700000
2.0540               0.9446100000
2.0545               0.9474800000
2.0550               0.9481000000
2.0555               0.9476600000
2.0560               0.9494300000
2.0565               0.9494800000
2.0570               0.9495200000
2.0575               0.9483000000
2.0580               0.9475600000
2.0585               0.9457700000
2.0590               0.9460000000
2.0595               0.9467800000
2.0600               0.9463000000
2.0605               0.9467800000
2.0610               0.9475900000
2.0615               0.9487000000
2.0620               0.9507900000
2.0625               0.9499500000
2.0630               0.9498400000
2.0635               0.9482100000
2.0640               0.9485600000
2.0645               0.9484600000
2.0650               0.9483800000
2.0655               0.9483600000
2.0660               0.9480700000
2.0665               0.9492600000
2.0670               0.9497800000
2.0675               0.9523500000
2.0680               0.9547700000
2.0685               0.9553500000
2.0690               0.9565600000
2.0695               0.9574900000
2.0700               0.9582100000
2.0705               0.9597000000
2.0710               0.9607500000
2.0715               0.9610600000
2.0720               0.9595600000
2.0725               0.9595600000
2.0730               0.9595600000
2.0735               0.9599900000
2.0740               0.9606800000
2.0745               0.9628100000
2.0750               0.9625400000
2.0755               0.9636500000
2.0760               0.9655000000
2.0765               0.9676500000
2.0770               0.9685700000
2.0775               0.9700600000
2.0780               0.9708600000
2.0785               0.9700900000
2.0790               0.9708400000
2.0795               0.9713300000
2.0800               0.9715600000
2.0805               0.9713900000
2.0810               0.9729800000
2.0815               0.9726700000
2.0820               0.9732800000
2.0825               0.9733600000
2.0830               0.9743800000
2.0835               0.9749600000
2.0840               0.9767200000
2.0845               0.9772900000
2.0850               0.9773900000
2.0855               0.9800900000
2.0860               0.9805300000
2.0865               0.9819000000
2.0870               0.9840200000
2.0875               0.9848200000
2.0880               0.9845400000
2.0885               0.9852100000
2.0890               0.9854900000
2.0895               0.9838400000
2.0900               0.9842100000
2.0905               0.9827400000
2.0910               0.9796100000
2.0915               0.9773600000
2.0920               0.9756600000
2.0925               0.9741400000
2.0930               0.9730100000
2.0935               0.9733000000
2.0940               0.9726300000
2.0945               0.9749900000
2.0950               0.9771300000
2.0955               0.9779400000
2.0960               0.9792000000
2.0965               0.9805300000
2.0970               0.9793200000
2.0975               0.9798000000
2.0980               0.9794600000
2.0985               0.9787100000
2.0990               0.9765500000
2.0995               0.9767500000
2.1000               0.9762700000
2.1005               0.9766400000
2.1010               0.9792800000
2.1015               0.9773600000
2.1020               0.9786400000
2.1025               0.9762600000
2.1030               0.9773300000
2.1035               0.9762000000
2.1040               0.9748200000
2.1045               0.9741800000
2.1050               0.9726400000
2.1055               0.9738900000
2.1060               0.9719200000
2.1065               0.9735400000
2.1070               0.9740600000
2.1075               0.9747600000
2.1080               0.9743700000
2.1085               0.9732400000
2.1090               0.9722300000
2.1095               0.9707200000
2.1100               0.9708300000
2.1105               0.9702600000
2.1110               0.9690900000
2.1115               0.9692400000
2.1120               0.9704400000
2.1125               0.9701800000
2.1130               0.9686300000
2.1135               0.9687500000
2.1140               0.9683100000
2.1145               0.9677700000
2.1150               0.9676500000
2.1155               0.9662000000
2.1160               0.9658500000
2.1165               0.9656400000
2.1170               0.9669500000
2.1175               0.9678800000
2.1180               0.9675100000
2.1185               0.9667400000
2.1190               0.9677100000
2.1195               0.9681900000
2.1200               0.9687300000
2.1205               0.9689300000
2.1210               0.9692800000
2.1215               0.9671500000
2.1220               0.9688300000
2.1225               0.9690100000
2.1230               0.9677700000
2.1235               0.9682500000
2.1240               0.9670400000
2.1245               0.9663200000
2.1250               0.9664300000
2.1255               0.9686000000
2.1260               0.9678300000
2.1265               0.9671500000
2.1270               0.9683100000
2.1275               0.9673600000
2.1280               0.9682800000
2.1285               0.9681700000
2.1290               0.9686000000
2.1295               0.9680900000
2.1300               0.9700300000
2.1305               0.9732500000
2.1310               0.9744400000
2.1315               0.9742600000
2.1320               0.9748100000
2.1325               0.9760300000
2.1330               0.9768100000
2.1335               0.9775800000
2.1340               0.9770500000
2.1345               0.9770200000
2.1350               0.9759700000
2.1355               0.9776300000
2.1360               0.9777700000
2.1365               0.9771900000
2.1370               0.9785900000
2.1375               0.9786100000
2.1380               0.9781300000
2.1385               0.9775700000
2.1390               0.9788200000
2.1395               0.9785600000
2.1400               0.9780400000
2.1405               0.9797700000
2.1410               0.9803000000
2.1415               0.9792300000
2.1420               0.9784200000
2.1425               0.9788700000
2.1430               0.9773300000
2.1435               0.9778000000
2.1440               0.9778900000
2.1445               0.9754600000
2.1450               0.9726300000
2.1455               0.9725800000
2.1460               0.9736600000
2.1465               0.9737500000
2.1470               0.9741100000
2.1475               0.9752000000
2.1480               0.9763900000
2.1485               0.9802100000
2.1490               0.9798300000
2.1495               0.9789300000
2.1500               0.9764600000
2.1505               0.9730700000
2.1510               0.9731900000
2.1515               0.9727900000
2.1520               0.9729500000
2.1525               0.9709900000
2.1530               0.9707900000
2.1535               0.9731800000
2.1540               0.9730200000
2.1545               0.9748700000
2.1550               0.9750700000
2.1555               0.9749500000
2.1560               0.9739500000
2.1565               0.9739100000
2.1570               0.9751100000
2.1575               0.9727200000
2.1580               0.9761000000
2.1585               0.9756800000
2.1590               0.9759700000
2.1595               0.9749000000
2.1600               0.9719500000
2.1605               0.9717700000
2.1610               0.9704100000
2.1615               0.9706900000
2.1620               0.9676700000
2.1625               0.9685200000
2.1630               0.9672400000
2.1635               0.9671900000
2.1640               0.9709800000
2.1645               0.9717700000
2.1650               0.9740100000
2.1655               0.9753100000
2.1660               0.9769300000
2.1665               0.9761200000
2.1670               0.9774900000
2.1675               0.9766400000
2.1680               0.9750500000
2.1685               0.9756000000
2.1690               0.9754300000
2.1695               0.9747500000
2.1700               0.9740900000
2.1705               0.9748200000
2.1710               0.9718000000
2.1715               0.9731300000
2.1720               0.9740000000
2.1725               0.9708900000
2.1730               0.9672400000
2.1735               0.9659900000
2.1740               0.9670700000
2.1745               0.9656400000
2.1750               0.9651600000
2.1755               0.9642000000
2.1760               0.9643700000
2.1765               0.9653500000
2.1770               0.9666300000
2.1775               0.9667800000
2.1780               0.9641700000
2.1785               0.9642000000
2.1790               0.9638400000
2.1795               0.9635500000
2.1800               0.9602200000
2.1805               0.9580700000
2.1810               0.9563900000
2.1815               0.9563900000
2.1820               0.9559300000
2.1825               0.9564700000
2.1830               0.9583400000
2.1835               0.9587400000
2.1840               0.9573200000
2.1845               0.9567700000
2.1850               0.9582700000
2.1855               0.9559200000
2.1860               0.9564800000
2.1865               0.9551700000
2.1870               0.9538000000
2.1875               0.9517500000
2.1880               0.9526400000
2.1885               0.9524200000
2.1890               0.9503300000
2.1895               0.9507300000
2.1900               0.9481000000
2.1905               0.9468800000
2.1910               0.9456600000
2.1915               0.9444300000
2.1920               0.9440200000
2.1925               0.9443800000
2.1930               0.9430800000
2.1935               0.9411500000
2.1940               0.9416800000
2.1945               0.9424300000
2.1950               0.9423100000
2.1955               0.9433100000
2.1960               0.9409900000
2.1965               0.9406700000
2.1970               0.9390300000
2.1975               0.9389000000
2.1980               0.9371500000
2.1985               0.9352300000
2.1990               0.9351700000
2.1995               0.9348000000
2.2000               0.9372100000
2.2005               0.9371600000
2.2010               0.9401200000
2.2015               0.9430500000
2.2020               0.9435400000
2.2025               0.9456600000
2.2030               0.9460600000
2.2035               0.9471900000
2.2040               0.9474500000
2.2045               0.9469100000
2.2050               0.9455100000
2.2055               0.9442700000
2.2060               0.9473000000
2.2065               0.9452100000
2.2070               0.9456600000
2.2075               0.9455300000
2.2080               0.9469600000
2.2085               0.9469000000
2.2090               0.9491300000
2.2095               0.9515100000
2.2100               0.9503000000
2.2105               0.9525000000
2.2110               0.9517500000
2.2115               0.9513700000
2.2120               0.9520300000
2.2125               0.9538600000
2.2130               0.9542700000
2.2135               0.9538600000
2.2140               0.9545000000
2.2145               0.9550200000
2.2150               0.9551500000
2.2155               0.9554700000
2.2160               0.9558700000
2.2165               0.9581800000
2.2170               0.9591200000
2.2175               0.9586800000
2.2180               0.9603300000
2.2185               0.9597500000
2.2190               0.9612600000
2.2195               0.9604900000
2.2200               0.9590900000
2.2205               0.9572800000
2.2210               0.9570000000
2.2215               0.9584200000
2.2220               0.9581100000
2.2225               0.9583700000
2.2230               0.9590500000
2.2235               0.9606200000
2.2240               0.9617900000
2.2245               0.9627700000
2.2250               0.9636100000
2.2255               0.9631300000
2.2260               0.9626900000
2.2265               0.9645400000
2.2270               0.9670100000
2.2275               0.9698900000
2.2280               0.9714100000
2.2285               0.9729200000
2.2290               0.9742900000
2.2295               0.9750200000
2.2300               0.9767800000
2.2305               0.9772300000
2.2310               0.9751900000
2.2315               0.9745600000
2.2320               0.9738200000
2.2325               0.9732700000
2.2330               0.9711900000
2.2335               0.9713100000
2.2340               0.9703400000
2.2345               0.9682800000
2.2350               0.9686300000
2.2355               0.9655800000
2.2360               0.9649200000
2.2365               0.9648100000
2.2370               0.9667100000
2.2375               0.9663200000
2.2380               0.9696500000
2.2385               0.9702900000
2.2390               0.9701700000
2.2395               0.9698600000
2.2400               0.9703100000
2.2405               0.9694800000
2.2410               0.9686900000
2.2415               0.9650400000
2.2420               0.9599500000
2.2425               0.9601000000
2.2430               0.9595600000
2.2435               0.9606000000
2.2440               0.9592100000
2.2445               0.9584800000
2.2450               0.9575500000
2.2455               0.9597000000
2.2460               0.9608000000
2.2465               0.9618200000
2.2470               0.9626600000
2.2475               0.9643100000
2.2480               0.9655000000
2.2485               0.9652700000
2.2490               0.9651900000
2.2495               0.9662500000
2.2500               0.9664200000
2.2505               0.9646600000
2.2510               0.9640700000
2.2515               0.9622700000
2.2520               0.9606300000
2.2525               0.9601900000
2.2530               0.9598200000
2.2535               0.9584700000
2.2540               0.9560400000
2.2545               0.9562700000
2.2550               0.9559900000
2.2555               0.9549100000
2.2560               0.9535500000
2.2565               0.9533800000
2.2570               0.9542700000
2.2575               0.9552600000
2.2580               0.9584200000
2.2585               0.9569100000
2.2590               0.9556700000
2.2595               0.9551400000
2.2600               0.9555200000
2.2605               0.9552800000
2.2610               0.9551100000
2.2615               0.9547600000
2.2620               0.9538900000
2.2625               0.9537500000
2.2630               0.9533200000
2.2635               0.9529300000
2.2640               0.9536000000
2.2645               0.9540900000
2.2650               0.9527700000
2.2655               0.9521900000
2.2660               0.9501600000
2.2665               0.9511300000
2.2670               0.9531200000
2.2675               0.9537800000
2.2680               0.9556100000
2.2685               0.9541300000
2.2690               0.9534900000
2.2695               0.9540600000
2.2700               0.9556000000
2.2705               0.9555200000
2.2710               0.9540400000
2.2715               0.9541500000
2.2720               0.9538000000
2.2725               0.9561000000
2.2730               0.9580200000
2.2735               0.9596100000
2.2740               0.9614100000
2.2745               0.9630100000
2.2750               0.9655900000
2.2755               0.9695700000
2.2760               0.9695000000
2.2765               0.9707000000
2.2770               0.9709500000
2.2775               0.9714200000
2.2780               0.9714500000
2.2785               0.9707500000
2.2790               0.9703700000
2.2795               0.9699600000
2.2800               0.9699100000
2.2805               0.9670700000
2.2810               0.9662600000
2.2815               0.9648900000
2.2820               0.9636100000
2.2825               0.9614000000
2.2830               0.9602200000
2.2835               0.9573800000
2.2840               0.9553400000
2.2845               0.9550600000
2.2850               0.9530500000
2.2855               0.9510200000
2.2860               0.9493600000
2.2865               0.9490100000
2.2870               0.9453900000
2.2875               0.9431200000
2.2880               0.9416500000
2.2885               0.9393200000
2.2890               0.9373000000
2.2895               0.9343900000
2.2900               0.9342000000
2.2905               0.9326300000
2.2910               0.9314600000
2.2915               0.9305300000
2.2920               0.9285600000
2.2925               0.9269700000
2.2930               0.9251400000
2.2935               0.9234300000
2.2940               0.9193900000
2.2945               0.9170400000
2.2950               0.9158800000
2.2955               0.9126900000
2.2960               0.9106600000
2.2965               0.9081900000
2.2970               0.9055600000
2.2975               0.9011500000
2.2980               0.8966100000
2.2985               0.8908200000
2.2990               0.8866400000
2.2995               0.8810700000
2.3000               0.8770600000
2.3005               0.8727400000
2.3010               0.8667100000
2.3015               0.8616500000
2.3020               0.8561900000
2.3025               0.8495500000
2.3030               0.8399800000
2.3035               0.8297600000
2.3040               0.8181600000
2.3045               0.8053700000
2.3050               0.7939000000
2.3055               0.7819200000
2.3060               0.7688300000
2.3065               0.7551900000
2.3070               0.7413900000
2.3075               0.7283800000
2.3080               0.7124600000
2.3085               0.6972500000
2.3090               0.6797800000
2.3095               0.6614100000
2.3100               0.6428200000
2.3105               0.6229400000
2.3110               0.6012600000
2.3115               0.5805800000
2.3120               0.5611700000
2.3125               0.5392800000
2.3130               0.5175800000
2.3135               0.4953500000
2.3140               0.4735700000
2.3145               0.4530900000
2.3150               0.4342700000
2.3155               0.4127700000
2.3160               0.3900900000
2.3165               0.3706400000
2.3170               0.3526200000
2.3175               0.3342900000
2.3180               0.3154800000
2.3185               0.2977300000
2.3190               0.2803200000
2.3195               0.2648300000
2.3200               0.2502100000
2.3205               0.2351100000
2.3210               0.2206300000
2.3215               0.2077300000
2.3220               0.1951400000
2.3225               0.1835500000
2.3230               0.1723300000
2.3235               0.1602300000
2.3240               0.1498300000
2.3245               0.1411700000
2.3250               0.1316400000
2.3255               0.1233500000
2.3260               0.1158600000
2.3265               0.1076400000
2.3270               0.0999100000
2.3275               0.0946200000
2.3280               0.0884200000
2.3285               0.0823700000
2.3290               0.0761600000
2.3295               0.0700800000
2.3300               0.0654100000
2.3305               0.0617500000
2.3310               0.0578600000
2.3315               0.0549900000
2.3320               0.0510300000
2.3325               0.0470700000
2.3330               0.0455500000
2.3335               0.0439900000
2.3340               0.0401900000
2.3345               0.0372600000
2.3350               0.0342700000
2.3355               0.0305000000
2.3360               0.0294200000
2.3365               0.0282000000
2.3370               0.0246400000
2.3375               0.0216100000
2.3380               0.0205400000
2.3385               0.0183000000
2.3390               0.0177900000
2.3395               0.0175300000
2.3400               0.0153400000
2.3405               0.0122100000
2.3410               0.0119600000
2.3415               0.0105600000
2.3420               0.0109700000
2.3425               0.0109700000
2.3430               0.0101500000
2.3435               0.0087400000
2.3440               0.0087900000
2.3445               0.0090900000
2.3450               0.0091100000
2.3455               0.0091100000
2.3460               0.0067700000
2.3465               0.0050200000
2.3470               0.0041400000
2.3475               0.0020400000
