# Average Spectral response curve for LaSilla/GROND K band

#Detector Type
Energy counter

# Wave (microns)     Filter Response
1.8930 0.0001000000
1.8940 0.0001000000
1.8950 0.0001000000
1.8960 0.0001000000
1.8970 0.0001000000
1.8980 0.0001000000
1.8990 0.0001000000
1.9000 0.0001000000
1.9010 0.0001000000
1.9020 0.0001000000
1.9030 0.0001000000
1.9040 0.0001000000
1.9050 0.0001000000
1.9060 0.0001000000
1.9070 0.0001000000
1.9080 0.0002000000
1.9090 0.0002000000
1.9100 0.0002000000
1.9110 0.0002000000
1.9120 0.0002000000
1.9130 0.0002000000
1.9140 0.0002000000
1.9150 0.0002000000
1.9160 0.0003000000
1.9170 0.0003000000
1.9180 0.0003000000
1.9190 0.0003000000
1.9200 0.0003000000
1.9210 0.0004000000
1.9220 0.0004000000
1.9230 0.0004000000
1.9240 0.0004000000
1.9250 0.0005000000
1.9260 0.0005000000
1.9270 0.0006000000
1.9280 0.0006000000
1.9290 0.0007000000
1.9300 0.0007000000
1.9310 0.0007000000
1.9320 0.0008000000
1.9330 0.0009000000
1.9340 0.0009000000
1.9350 0.0010000000
1.9360 0.0011000000
1.9370 0.0012000000
1.9380 0.0013000000
1.9390 0.0014000000
1.9400 0.0015000000
1.9410 0.0016000000
1.9420 0.0017000000
1.9430 0.0018000000
1.9440 0.0020000000
1.9450 0.0022000000
1.9460 0.0023000000
1.9470 0.0025000000
1.9480 0.0027000000
1.9490 0.0030000000
1.9500 0.0032000000
1.9510 0.0035000000
1.9520 0.0037000000
1.9530 0.0040000000
1.9540 0.0044000000
1.9550 0.0048000000
1.9560 0.0052000000
1.9570 0.0056000000
1.9580 0.0060000000
1.9590 0.0066000000
1.9600 0.0071000000
1.9610 0.0077000000
1.9620 0.0083000000
1.9630 0.0090000000
1.9640 0.0098000000
1.9650 0.0106000000
1.9660 0.0115000000
1.9670 0.0125000000
1.9680 0.0136000000
1.9690 0.0147000000
1.9700 0.0159000000
1.9710 0.0173000000
1.9720 0.0188000000
1.9730 0.0203000000
1.9740 0.0220000000
1.9750 0.0239000000
1.9760 0.0259000000
1.9770 0.0279000000
1.9780 0.0302000000
1.9790 0.0327000000
1.9800 0.0354000000
1.9810 0.0383000000
1.9820 0.0413000000
1.9830 0.0445000000
1.9840 0.0481000000
1.9850 0.0520000000
1.9860 0.0561000000
1.9870 0.0606000000
1.9880 0.0652000000
1.9890 0.0700000000
1.9900 0.0751000000
1.9910 0.0808000000
1.9920 0.0870000000
1.9930 0.0931000000
1.9940 0.0996000000
1.9950 0.1065000000
1.9960 0.1138000000
1.9970 0.1216000000
1.9980 0.1298000000
1.9990 0.1384000000
2.0000 0.1471000000
2.0010 0.1561000000
2.0020 0.1657000000
2.0030 0.1756000000
2.0040 0.1857000000
2.0050 0.1959000000
2.0060 0.2065000000
2.0070 0.2173000000
2.0080 0.2289000000
2.0090 0.2409000000
2.0100 0.2524000000
2.0110 0.2640000000
2.0120 0.2761000000
2.0130 0.2886000000
2.0140 0.3009000000
2.0150 0.3132000000
2.0160 0.3253000000
2.0170 0.3375000000
2.0180 0.3496000000
2.0190 0.3620000000
2.0200 0.3742000000
2.0210 0.3859000000
2.0220 0.3973000000
2.0230 0.4087000000
2.0240 0.4200000000
2.0250 0.4315000000
2.0260 0.4423000000
2.0270 0.4523000000
2.0280 0.4619000000
2.0290 0.4716000000
2.0300 0.4810000000
2.0310 0.4901000000
2.0320 0.4985000000
2.0330 0.5059000000
2.0340 0.5131000000
2.0350 0.5203000000
2.0360 0.5277000000
2.0370 0.5343000000
2.0380 0.5400000000
2.0390 0.5448000000
2.0400 0.5496000000
2.0410 0.5545000000
2.0420 0.5590000000
2.0430 0.5631000000
2.0440 0.5662000000
2.0450 0.5690000000
2.0460 0.5718000000
2.0470 0.5749000000
2.0480 0.5773000000
2.0490 0.5794000000
2.0500 0.5806000000
2.0510 0.5818000000
2.0520 0.5831000000
2.0530 0.5847000000
2.0540 0.5858000000
2.0550 0.5863000000
2.0560 0.5861000000
2.0570 0.5861000000
2.0580 0.5868000000
2.0590 0.5872000000
2.0600 0.5874000000
2.0610 0.5869000000
2.0620 0.5864000000
2.0630 0.5860000000
2.0640 0.5861000000
2.0650 0.5862000000
2.0660 0.5860000000
2.0670 0.5854000000
2.0680 0.5845000000
2.0690 0.5838000000
2.0700 0.5834000000
2.0710 0.5834000000
2.0720 0.5830000000
2.0730 0.5822000000
2.0740 0.5809000000
2.0750 0.5801000000
2.0760 0.5802000000
2.0770 0.5803000000
2.0780 0.5799000000
2.0790 0.5789000000
2.0800 0.5782000000
2.0810 0.5777000000
2.0820 0.5778000000
2.0830 0.5774000000
2.0840 0.5770000000
2.0850 0.5760000000
2.0860 0.5756000000
2.0870 0.5756000000
2.0880 0.5755000000
2.0890 0.5760000000
2.0900 0.5759000000
2.0910 0.5755000000
2.0920 0.5748000000
2.0930 0.5749000000
2.0940 0.5755000000
2.0950 0.5760000000
2.0960 0.5761000000
2.0970 0.5757000000
2.0980 0.5754000000
2.0990 0.5757000000
2.1000 0.5766000000
2.1010 0.5770000000
2.1020 0.5770000000
2.1030 0.5771000000
2.1040 0.5774000000
2.1050 0.5774000000
2.1060 0.5783000000
2.1070 0.5793000000
2.1080 0.5798000000
2.1090 0.5800000000
2.1100 0.5803000000
2.1110 0.5806000000
2.1120 0.5813000000
2.1130 0.5820000000
2.1140 0.5828000000
2.1150 0.5833000000
2.1160 0.5835000000
2.1170 0.5838000000
2.1180 0.5848000000
2.1190 0.5861000000
2.1200 0.5868000000
2.1210 0.5875000000
2.1220 0.5879000000
2.1230 0.5881000000
2.1240 0.5892000000
2.1250 0.5904000000
2.1260 0.5914000000
2.1270 0.5916000000
2.1280 0.5925000000
2.1290 0.5934000000
2.1300 0.5941000000
2.1310 0.5948000000
2.1320 0.5955000000
2.1330 0.5961000000
2.1340 0.5968000000
2.1350 0.5969000000
2.1360 0.5975000000
2.1370 0.5987000000
2.1380 0.5998000000
2.1390 0.6002000000
2.1400 0.6011000000
2.1410 0.6017000000
2.1420 0.6026000000
2.1430 0.6034000000
2.1440 0.6046000000
2.1450 0.6057000000
2.1460 0.6058000000
2.1470 0.6056000000
2.1480 0.6059000000
2.1490 0.6065000000
2.1500 0.6071000000
2.1510 0.6083000000
2.1520 0.6089000000
2.1530 0.6090000000
2.1540 0.6093000000
2.1550 0.6100000000
2.1560 0.6108000000
2.1570 0.6109000000
2.1580 0.6114000000
2.1590 0.6114000000
2.1600 0.6116000000
2.1610 0.6116000000
2.1620 0.6123000000
2.1630 0.6128000000
2.1640 0.6126000000
2.1650 0.6125000000
2.1660 0.6122000000
2.1670 0.6120000000
2.1680 0.6116000000
2.1690 0.6116000000
2.1700 0.6115000000
2.1710 0.6113000000
2.1720 0.6107000000
2.1730 0.6106000000
2.1740 0.6105000000
2.1750 0.6102000000
2.1760 0.6101000000
2.1770 0.6102000000
2.1780 0.6100000000
2.1790 0.6089000000
2.1800 0.6083000000
2.1810 0.6084000000
2.1820 0.6083000000
2.1830 0.6078000000
2.1840 0.6075000000
2.1850 0.6060000000
2.1860 0.6049000000
2.1870 0.6046000000
2.1880 0.6045000000
2.1890 0.6038000000
2.1900 0.6029000000
2.1910 0.6020000000
2.1920 0.6015000000
2.1930 0.6010000000
2.1940 0.5997000000
2.1950 0.5983000000
2.1960 0.5977000000
2.1970 0.5981000000
2.1980 0.5976000000
2.1990 0.5962000000
2.2000 0.5947000000
2.2010 0.5945000000
2.2020 0.5947000000
2.2030 0.5942000000
2.2040 0.5933000000
2.2050 0.5931000000
2.2060 0.5922000000
2.2070 0.5915000000
2.2080 0.5912000000
2.2090 0.5907000000
2.2100 0.5902000000
2.2110 0.5899000000
2.2120 0.5894000000
2.2130 0.5890000000
2.2140 0.5889000000
2.2150 0.5886000000
2.2160 0.5882000000
2.2170 0.5881000000
2.2180 0.5876000000
2.2190 0.5870000000
2.2200 0.5866000000
2.2210 0.5867000000
2.2220 0.5866000000
2.2230 0.5865000000
2.2240 0.5865000000
2.2250 0.5868000000
2.2260 0.5869000000
2.2270 0.5869000000
2.2280 0.5870000000
2.2290 0.5868000000
2.2300 0.5866000000
2.2310 0.5866000000
2.2320 0.5866000000
2.2330 0.5865000000
2.2340 0.5865000000
2.2350 0.5865000000
2.2360 0.5866000000
2.2370 0.5871000000
2.2380 0.5871000000
2.2390 0.5873000000
2.2400 0.5875000000
2.2410 0.5879000000
2.2420 0.5887000000
2.2430 0.5893000000
2.2440 0.5900000000
2.2450 0.5901000000
2.2460 0.5906000000
2.2470 0.5908000000
2.2480 0.5914000000
2.2490 0.5919000000
2.2500 0.5925000000
2.2510 0.5931000000
2.2520 0.5932000000
2.2530 0.5936000000
2.2540 0.5938000000
2.2550 0.5939000000
2.2560 0.5944000000
2.2570 0.5949000000
2.2580 0.5954000000
2.2590 0.5958000000
2.2600 0.5961000000
2.2610 0.5963000000
2.2620 0.5964000000
2.2630 0.5965000000
2.2640 0.5965000000
2.2650 0.5960000000
2.2660 0.5955000000
2.2670 0.5949000000
2.2680 0.5946000000
2.2690 0.5938000000
2.2700 0.5926000000
2.2710 0.5918000000
2.2720 0.5908000000
2.2730 0.5894000000
2.2740 0.5876000000
2.2750 0.5859000000
2.2760 0.5839000000
2.2770 0.5818000000
2.2780 0.5796000000
2.2790 0.5772000000
2.2800 0.5742000000
2.2810 0.5708000000
2.2820 0.5675000000
2.2830 0.5638000000
2.2840 0.5599000000
2.2850 0.5556000000
2.2860 0.5511000000
2.2870 0.5461000000
2.2880 0.5409000000
2.2890 0.5357000000
2.2900 0.5303000000
2.2910 0.5246000000
2.2920 0.5189000000
2.2930 0.5125000000
2.2940 0.5061000000
2.2950 0.4994000000
2.2960 0.4924000000
2.2970 0.4849000000
2.2980 0.4773000000
2.2990 0.4694000000
2.3000 0.4612000000
2.3010 0.4533000000
2.3020 0.4451000000
2.3030 0.4365000000
2.3040 0.4280000000
2.3050 0.4194000000
2.3060 0.4107000000
2.3070 0.4021000000
2.3080 0.3927000000
2.3090 0.3839000000
2.3100 0.3747000000
2.3110 0.3655000000
2.3120 0.3563000000
2.3130 0.3472000000
2.3140 0.3382000000
2.3150 0.3294000000
2.3160 0.3205000000
2.3170 0.3117000000
2.3180 0.3030000000
2.3190 0.2944000000
2.3200 0.2858000000
2.3210 0.2777000000
2.3220 0.2696000000
2.3230 0.2617000000
2.3240 0.2537000000
2.3250 0.2459000000
2.3260 0.2382000000
2.3270 0.2309000000
2.3280 0.2236000000
2.3290 0.2166000000
2.3300 0.2097000000
2.3310 0.2030000000
2.3320 0.1965000000
2.3330 0.1900000000
2.3340 0.1838000000
2.3350 0.1779000000
2.3360 0.1722000000
2.3370 0.1666000000
2.3380 0.1611000000
2.3390 0.1556000000
2.3400 0.1505000000
2.3410 0.1455000000
2.3420 0.1408000000
2.3430 0.1362000000
2.3440 0.1316000000
2.3450 0.1274000000
2.3460 0.1232000000
2.3470 0.1191000000
2.3480 0.1149000000
2.3490 0.1110000000
2.3500 0.1074000000
2.3510 0.1038000000
2.3520 0.1003000000
2.3530 0.0970000000
2.3540 0.0938000000
2.3550 0.0908000000
2.3560 0.0877000000
2.3570 0.0848000000
2.3580 0.0819000000
2.3590 0.0790000000
2.3600 0.0764000000
2.3610 0.0739000000
2.3620 0.0715000000
2.3630 0.0694000000
2.3640 0.0672000000
2.3650 0.0650000000
2.3660 0.0630000000
2.3670 0.0609000000
2.3680 0.0591000000
2.3690 0.0573000000
2.3700 0.0556000000
2.3710 0.0539000000
2.3720 0.0522000000
2.3730 0.0506000000
2.3740 0.0490000000
2.3750 0.0473000000
2.3760 0.0459000000
2.3770 0.0446000000
2.3780 0.0433000000
2.3790 0.0421000000
2.3800 0.0408000000
2.3810 0.0395000000
2.3820 0.0382000000
2.3830 0.0370000000
2.3840 0.0360000000
2.3850 0.0350000000
2.3860 0.0340000000
2.3870 0.0330000000
2.3880 0.0320000000
2.3890 0.0310000000
2.3900 0.0300000000
2.3910 0.0293000000
2.3920 0.0285000000
2.3930 0.0278000000
2.3940 0.0270000000
2.3950 0.0263000000
2.3960 0.0255000000
2.3970 0.0247000000
2.3980 0.0241000000
2.3990 0.0235000000
2.4000 0.0229000000
2.4010 0.0223000000
2.4020 0.0216000000
2.4030 0.0210000000
2.4040 0.0204000000
2.4050 0.0199000000
2.4060 0.0195000000
2.4070 0.0190000000
2.4080 0.0184000000
2.4090 0.0179000000
2.4100 0.0174000000
2.4110 0.0170000000
2.4120 0.0166000000
2.4130 0.0162000000
2.4140 0.0158000000
2.4150 0.0153000000
2.4160 0.0149000000
2.4170 0.0146000000
2.4180 0.0142000000
2.4190 0.0139000000
2.4200 0.0135000000
2.4210 0.0131000000
2.4220 0.0129000000
2.4230 0.0126000000
2.4240 0.0122000000
2.4250 0.0119000000
2.4260 0.0117000000
2.4270 0.0114000000
2.4280 0.0110000000
2.4290 0.0108000000
2.4300 0.0106000000
2.4310 0.0104000000
2.4320 0.0101000000
2.4330 0.0098000000
2.4340 0.0096000000
2.4350 0.0094000000
2.4360 0.0092000000
2.4370 0.0089000000
2.4380 0.0087000000
2.4390 0.0086000000
2.4400 0.0083000000
2.4410 0.0082000000
2.4420 0.0080000000
2.4430 0.0078000000
2.4440 0.0076000000
2.4450 0.0074000000
2.4460 0.0073000000
2.4470 0.0071000000
2.4480 0.0069000000
2.4490 0.0067000000
2.4500 0.0067000000
2.4510 0.0066000000
2.4520 0.0064000000
2.4530 0.0062000000
2.4540 0.0061000000
2.4550 0.0060000000
2.4560 0.0058000000
2.4570 0.0057000000
2.4580 0.0056000000
2.4590 0.0055000000
2.4600 0.0053000000
2.4610 0.0051000000
2.4620 0.0051000000
2.4630 0.0050000000
2.4640 0.0050000000
2.4650 0.0049000000
2.4660 0.0047000000
2.4670 0.0045000000
2.4680 0.0045000000
2.4690 0.0045000000
2.4700 0.0044000000
2.4710 0.0042000000
2.4720 0.0041000000
2.4730 0.0040000000
2.4740 0.0040000000
2.4750 0.0039000000
2.4760 0.0038000000
2.4770 0.0037000000
2.4780 0.0037000000
2.4790 0.0036000000
2.4800 0.0035000000
2.4810 0.0034000000
2.4820 0.0033000000
2.4830 0.0033000000
2.4840 0.0033000000
2.4850 0.0032000000
2.4860 0.0031000000
2.4870 0.0030000000
2.4880 0.0029000000
2.4890 0.0028000000
2.4900 0.0028000000
2.4910 0.0028000000
2.4920 0.0027000000
2.4930 0.0027000000
2.4940 0.0026000000
2.4950 0.0026000000
2.4960 0.0025000000
2.4970 0.0025000000
2.4980 0.0025000000
2.4990 0.0024000000
2.5000 0.0024000000
