#Average Spectral response curve for TESS

#Detector Type
Energy counter

# Wave (microns)     Filter Response
0.5670    0
0.5680    0.00010376
0.5690    0.00013632
0.5700    0.00018166
0.5710    0.00024546
0.5720    0.00033674
0.5730    0.00046958
0.5740    0.00066615
0.5750    0.00096281
0.5760    0.0014197
0.5770    0.0021394
0.5780    0.0033016
0.5790    0.005229
0.5800    0.0085175
0.5810    0.014294
0.5820    0.024716
0.5830    0.043845
0.5840    0.078669
0.5850    0.13808
0.5860    0.22389
0.5870    0.31647
0.5880    0.38681
0.5890    0.42959
0.5900    0.45957
0.5910    0.4907
0.5920    0.52992
0.5930    0.57909
0.5940    0.63664
0.5950    0.69842
0.5960    0.75855
0.5970    0.81102
0.5980    0.85157
0.5990    0.87899
0.6000    0.89486
0.6010    0.90246
0.6020    0.9051
0.6030    0.90551
0.6040    0.90547
0.6050    0.90588
0.6060    0.90698
0.6070    0.90863
0.6080    0.91051
0.6090    0.91228
0.6100    0.9137
0.6110    0.91465
0.6120    0.91518
0.6130    0.91541
0.6140    0.91546
0.6150    0.91551
0.6160    0.91569
0.6170    0.91608
0.6180    0.91673
0.6190    0.91761
0.6200    0.91867
0.6210    0.91984
0.6220    0.921
0.6230    0.92208
0.6240    0.923
0.6250    0.92372
0.6260    0.92423
0.6270    0.92455
0.6280    0.92473
0.6290    0.92482
0.6300    0.92489
0.6310    0.92501
0.6320    0.92522
0.6330    0.92557
0.6340    0.92608
0.6350    0.92673
0.6360    0.92752
0.6370    0.92841
0.6380    0.92936
0.6390    0.93031
0.6400    0.93123
0.6410    0.93207
0.6420    0.93281
0.6430    0.93344
0.6440    0.93395
0.6450    0.93435
0.6460    0.93467
0.6470    0.93494
0.6480    0.93519
0.6490    0.93546
0.6500    0.93578
0.6510    0.93601
0.6520    0.93633
0.6530    0.93674
0.6540    0.93725
0.6550    0.93785
0.6560    0.9385
0.6570    0.9392
0.6580    0.93991
0.6590    0.9406
0.6600    0.94125
0.6610    0.94184
0.6620    0.94235
0.6630    0.94277
0.6640    0.94311
0.6650    0.94338
0.6660    0.94358
0.6670    0.94375
0.6680    0.94389
0.6690    0.94404
0.6700    0.94421
0.6710    0.94443
0.6720    0.94471
0.6730    0.94507
0.6740    0.94551
0.6750    0.94603
0.6760    0.94662
0.6770    0.94726
0.6780    0.94795
0.6790    0.94865
0.6800    0.94935
0.6810    0.95002
0.6820    0.95064
0.6830    0.9512
0.6840    0.95168
0.6850    0.95207
0.6860    0.95238
0.6870    0.95259
0.6880    0.95273
0.6890    0.9528
0.6900    0.95282
0.6910    0.95281
0.6920    0.95279
0.6930    0.95279
0.6940    0.95282
0.6950    0.95291
0.6960    0.95306
0.6970    0.95329
0.6980    0.95361
0.6990    0.95402
0.7000    0.9545
0.7010    0.95473
0.7020    0.95502
0.7030    0.95535
0.7040    0.95571
0.7050    0.95608
0.7060    0.95644
0.7070    0.95678
0.7080    0.95707
0.7090    0.95732
0.7100    0.95749
0.7110    0.9576
0.7120    0.95763
0.7130    0.95758
0.7140    0.95745
0.7150    0.95726
0.7160    0.95701
0.7170    0.95672
0.7180    0.9564
0.7190    0.95606
0.7200    0.95572
0.7210    0.9561
0.7220    0.95651
0.7230    0.95696
0.7240    0.95746
0.7250    0.95802
0.7260    0.95865
0.7270    0.95935
0.7280    0.96012
0.7290    0.96095
0.7300    0.96185
0.7310    0.9628
0.7320    0.96379
0.7330    0.96481
0.7340    0.96585
0.7350    0.96689
0.7360    0.96793
0.7370    0.96895
0.7380    0.96994
0.7390    0.9709
0.7400    0.9718
0.7410    0.97241
0.7420    0.97297
0.7430    0.97347
0.7440    0.97391
0.7450    0.97431
0.7460    0.97467
0.7470    0.975
0.7480    0.9753
0.7490    0.97558
0.7500    0.97585
0.7510    0.97613
0.7520    0.97643
0.7530    0.97674
0.7540    0.97709
0.7550    0.97747
0.7560    0.9779
0.7570    0.97837
0.7580    0.97888
0.7590    0.97944
0.7600    0.98004
0.7610    0.98074
0.7620    0.98146
0.7630    0.98221
0.7640    0.98299
0.7650    0.98377
0.7660    0.98455
0.7670    0.98533
0.7680    0.98609
0.7690    0.98683
0.7700    0.98754
0.7710    0.98821
0.7720    0.98884
0.7730    0.98942
0.7740    0.98995
0.7750    0.99044
0.7760    0.99088
0.7770    0.99128
0.7780    0.99164
0.7790    0.99196
0.7800    0.99226
0.7810    0.99188
0.7820    0.99149
0.7830    0.99109
0.7840    0.9907
0.7850    0.99032
0.7860    0.98995
0.7870    0.98961
0.7880    0.9893
0.7890    0.98903
0.7900    0.9888
0.7910    0.9886
0.7920    0.98845
0.7930    0.98834
0.7940    0.98828
0.7950    0.98825
0.7960    0.98825
0.7970    0.98829
0.7980    0.98834
0.7990    0.98842
0.8000    0.98851
0.8010    0.989
0.8020    0.98949
0.8030    0.98997
0.8040    0.99043
0.8050    0.99088
0.8060    0.99129
0.8070    0.99168
0.8080    0.99203
0.8090    0.99234
0.8100    0.99262
0.8110    0.99285
0.8120    0.99304
0.8130    0.9932
0.8140    0.99333
0.8150    0.99342
0.8160    0.99349
0.8170    0.99354
0.8180    0.99357
0.8190    0.9936
0.8200    0.99362
0.8210    0.99345
0.8220    0.99328
0.8230    0.99314
0.8240    0.99301
0.8250    0.99291
0.8260    0.99284
0.8270    0.99281
0.8280    0.99281
0.8290    0.99285
0.8300    0.99293
0.8310    0.99305
0.8320    0.9932
0.8330    0.99339
0.8340    0.99362
0.8350    0.99387
0.8360    0.99416
0.8370    0.99446
0.8380    0.99479
0.8390    0.99513
0.8400    0.99547
0.8410    0.99592
0.8420    0.99637
0.8430    0.9968
0.8440    0.99722
0.8450    0.99762
0.8460    0.998
0.8470    0.99836
0.8480    0.99868
0.8490    0.99897
0.8500    0.99922
0.8510    0.99944
0.8520    0.99961
0.8530    0.99975
0.8540    0.99986
0.8550    0.99993
0.8560    0.99998
0.8570    1
0.8580    1
0.8590    0.99997
0.8600    0.99994
0.8610    0.99924
0.8620    0.99853
0.8630    0.99783
0.8640    0.99712
0.8650    0.99643
0.8660    0.99574
0.8670    0.99507
0.8680    0.99442
0.8690    0.99379
0.8700    0.99319
0.8710    0.99261
0.8720    0.99205
0.8730    0.99153
0.8740    0.99103
0.8750    0.99056
0.8760    0.99012
0.8770    0.9897
0.8780    0.98931
0.8790    0.98894
0.8800    0.98858
0.8810    0.98699
0.8820    0.98542
0.8830    0.98385
0.8840    0.98229
0.8850    0.98073
0.8860    0.97917
0.8870    0.9776
0.8880    0.97603
0.8890    0.97445
0.8900    0.97285
0.8910    0.97124
0.8920    0.96962
0.8930    0.96797
0.8940    0.9663
0.8950    0.96461
0.8960    0.9629
0.8970    0.96117
0.8980    0.95941
0.8990    0.95764
0.9000    0.95584
0.9010    0.95312
0.9020    0.95038
0.9030    0.94763
0.9040    0.94486
0.9050    0.94209
0.9060    0.9393
0.9070    0.93651
0.9080    0.93371
0.9090    0.93091
0.9100    0.92811
0.9110    0.92532
0.9120    0.92253
0.9130    0.91974
0.9140    0.91697
0.9150    0.91421
0.9160    0.91146
0.9170    0.90872
0.9180    0.90599
0.9190    0.90328
0.9200    0.90059
0.9210    0.8964
0.9220    0.89223
0.9230    0.88807
0.9240    0.88393
0.9250    0.8798
0.9260    0.87568
0.9270    0.87157
0.9280    0.86747
0.9290    0.86338
0.9300    0.8593
0.9310    0.85522
0.9320    0.85114
0.9330    0.84706
0.9340    0.84299
0.9350    0.83891
0.9360    0.83483
0.9370    0.83075
0.9380    0.82666
0.9390    0.82257
0.9400    0.81847
0.9410    0.81351
0.9420    0.80854
0.9430    0.80356
0.9440    0.79857
0.9450    0.79358
0.9460    0.78858
0.9470    0.78357
0.9480    0.77855
0.9490    0.77353
0.9500    0.7685
0.9510    0.76346
0.9520    0.75842
0.9530    0.75338
0.9540    0.74833
0.9550    0.74328
0.9560    0.73823
0.9570    0.73318
0.9580    0.72813
0.9590    0.72309
0.9600    0.71804
0.9610    0.71189
0.9620    0.70575
0.9630    0.69961
0.9640    0.69347
0.9650    0.68734
0.9660    0.68121
0.9670    0.67509
0.9680    0.66898
0.9690    0.66286
0.9700    0.65676
0.9710    0.65065
0.9720    0.64455
0.9730    0.63846
0.9740    0.63237
0.9750    0.62627
0.9760    0.62018
0.9770    0.6141
0.9780    0.60801
0.9790    0.60192
0.9800    0.59583
0.9810    0.58808
0.9820    0.58033
0.9830    0.57257
0.9840    0.56482
0.9850    0.55705
0.9860    0.54929
0.9870    0.54151
0.9880    0.53374
0.9890    0.52596
0.9900    0.51817
0.9910    0.51038
0.9920    0.50258
0.9930    0.49478
0.9940    0.48698
0.9950    0.47917
0.9960    0.47135
0.9970    0.46354
0.9980    0.45572
0.9990    0.4479
1.0000    0.44007
1.0010    0.43179
1.0020    0.42351
1.0030    0.41524
1.0040    0.40696
1.0050    0.39868
1.0060    0.3906
1.0070    0.38253
1.0080    0.37446
1.0090    0.36639
1.0100    0.35833
1.0110    0.35067
1.0120    0.34301
1.0130    0.33536
1.0140    0.32771
1.0150    0.32006
1.0160    0.31242
1.0170    0.30478
1.0180    0.29715
1.0190    0.28952
1.0200    0.28189
1.0210    0.27587
1.0220    0.26985
1.0230    0.26384
1.0240    0.25783
1.0250    0.25182
1.0260    0.24461
1.0270    0.2374
1.0280    0.2302
1.0290    0.22299
1.0300    0.21578
1.0310    0.20998
1.0320    0.20418
1.0330    0.19837
1.0340    0.19257
1.0350    0.18676
1.0360    0.18116
1.0370    0.17555
1.0380    0.16994
1.0390    0.16434
1.0400    0.15872
1.0410    0.15552
1.0420    0.15232
1.0430    0.14912
1.0440    0.14591
1.0450    0.14271
1.0460    0.1389
1.0470    0.13509
1.0480    0.13127
1.0490    0.12746
1.0500    0.12364
1.0510    0.12003
1.0520    0.11641
1.0530    0.11279
1.0540    0.10917
1.0550    0.10556
1.0560    0.10222
1.0570    0.09888
1.0580    0.095542
1.0590    0.092203
1.0600    0.088865
1.0610    0.086813
1.0620    0.084761
1.0630    0.08271
1.0640    0.080658
1.0650    0.078606
1.0660    0.076274
1.0670    0.073941
1.0680    0.071609
1.0690    0.069277
1.0700    0.066945
1.0710    0.065297
1.0720    0.063648
1.0730    0.062
1.0740    0.060352
1.0750    0.058704
1.0760    0.056934
1.0770    0.055165
1.0780    0.053395
1.0790    0.051625
1.0800    0.049854
1.0810    0.049108
1.0820    0.048361
1.0830    0.047614
1.0840    0.046865
1.0850    0.046115
1.0860    0.044982
1.0870    0.043848
1.0880    0.042712
1.0890    0.041576
1.0900    0.040437
1.0910    0.039318
1.0920    0.038197
1.0930    0.037074
1.0940    0.03595
1.0950    0.034825
1.0960    0.033698
1.0970    0.032571
1.0980    0.031442
1.0990    0.030312
1.1000    0.029182
1.1010    0.028051
1.1020    0.02692
1.1030    0.025789
1.1040    0.024658
1.1050    0.023528
1.1060    0.022399
1.1070    0.021271
1.1080    0.020145
1.1090    0.019021
1.1100    0.017899
1.1110    0.016781
1.1120    0.015666
1.1130    0.014555
1.1140    0.013448
1.1150    0.012346
1.1160    0.011248
1.1170    0.010157
1.1180    0.0090715
1.1190    0.0079924
1.1200    0.0069202
1.1210    0.005855
1.1220    0.0047974
1.1230    0.0037476
1.1240    0.0027059
1.1250    0.0016725
1.1260    0.00064763
1.1270    0
